/*
# CRIRES+ DRS input Uranium line list for QC
# $ver 0.4    20210930    useemann/ESO
# 
# Source:
#    Sarmiento+2018
#    Redman+2011
# 
# Units:
#    Wavelengths in nm
# 
*/

#ifndef CRIRES_QC_LINES_H
#define CRIRES_QC_LINES_H

static double qc_lines[1026]={
954.2587,
954.3909,
955.3605,
956.0555,
956.8693,
958.847,
959.7705,
961.0884,
961.969,
962.8053,
964.471,
964.801,
964.8515,
964.8771,
965.1823,
965.5902,
966.3,
970.0059,
970.6193,
972.9988,
974.9685,
976.3327,
980.9357,
981.6335,
982.1688,
982.3529,
982.7135,
983.3281,
983.7179,
986.839,
986.982,
987.1067,
988.1539,
988.4181,
989.8377,
990.8607,
991.071,
991.9931,
992.1232,
992.1851,
992.9109,
993.5484,
995.3023,
995.5216,
996.4353,
996.6842,
996.8018,
996.9717,
996.9835,
998.7825,
999.6211,
1000.3225,
1000.3304,
1000.4547,
1000.6421,
1001.0473,
1001.2728,
1001.2808,
1001.4161,
1001.8863,
1002.1,
1002.1896,
1002.5237,
1003.1056,
1003.5813,
1003.5988,
1003.6342,
1003.6666,
1003.6821,
1003.7014,
1004.1571,
1004.3273,
1004.8706,
1005.0072,
1005.0195,
1005.0296,
1005.1127,
1005.1304,
1005.473,
1006.0344,
1006.0828,
1006.633,
1006.7773,
1007.0115,
1007.1948,
1007.2785,
1007.4016,
1007.5458,
1007.6354,
1007.7954,
1008.2074,
1008.5331,
1008.8801,
1009.2218,
1009.5344,
1009.7168,
1009.8038,
1009.9167,
1009.9253,
1010.1516,
1010.4174,
1010.5281,
1010.6265,
1011.0954,
1011.4884,
1011.6072,
1011.9465,
1012.5262,
1012.8964,
1013.0384,
1013.304,
1013.8908,
1014.5302,
1014.7517,
1015.0419,
1015.0686,
1015.2185,
1015.3144,
1015.8585,
1016.0696,
1016.6088,
1016.6406,
1016.6784,
1017.089,
1017.1625,
1018.7101,
1018.766,
1019.1399,
1019.5988,
1020.2081,
1020.3324,
1020.6051,
1022.6087,
1022.6272,
1023.4656,
1023.8905,
1023.9476,
1024.688,
1024.9751,
1025.0206,
1025.3633,
1025.66,
1025.6996,
1025.7156,
1026.0753,
1026.2359,
1026.3362,
1026.8627,
1027.4881,
1027.8162,
1028.0716,
1028.5094,
1028.8028,
1029.0316,
1029.4253,
1029.6305,
1029.7854,
1030.683,
1030.8105,
1030.9499,
1031.1183,
1031.4472,
1031.6596,
1032.0557,
1032.3724,
1032.494,
1032.8902,
1033.5291,
1033.6545,
1033.6692,
1033.7065,
1033.897,
1034.9975,
1035.1121,
1035.1931,
1035.3166,
1035.398,
1035.6222,
1035.7182,
1035.9302,
1036.0223,
1036.1276,
1037.5626,
1038.1125,
1038.3972,
1038.5737,
1038.6051,
1038.6523,
1038.9008,
1039.4025,
1039.5828,
1040.1952,
1040.8918,
1041.0133,
1041.1344,
1041.2321,
1041.5363,
1041.717,
1042.0037,
1042.61,
1042.9646,
1043.2897,
1043.5708,
1043.6634,
1043.7947,
1043.9399,
1044.4665,
1045.1935,
1045.5281,
1045.8859,
1046.0361,
1046.3362,
1046.396,
1046.4203,
1046.5864,
1046.7062,
1046.783,
1047.0125,
1047.982,
1048.2881,
1048.4195,
1048.4319,
1048.9768,
1049.5012,
1050.0583,
1050.4167,
1050.8598,
1051.1947,
1051.3862,
1051.8038,
1052.0399,
1052.1117,
1052.2275,
1052.6053,
1052.7569,
1052.7795,
1052.8878,
1052.9138,
1053.1826,
1053.2172,
1053.3508,
1053.7712,
1054.1726,
1054.242,
1054.8111,
1055.3388,
1055.4757,
1055.7824,
1055.8005,
1056.2725,
1056.6527,
1056.8725,
1057.09,
1057.2463,
1057.4996,
1057.9356,
1058.1715,
1058.3636,
1058.698,
1059.0385,
1059.2772,
1059.3291,
1059.6172,
1060.1163,
1060.2844,
1060.5646,
1060.6729,
1060.8922,
1060.9314,
1061.6728,
1062.2415,
1062.6455,
1063.0216,
1063.1252,
1063.4371,
1063.9852,
1064.8688,
1064.8951,
1064.9389,
1065.0381,
1065.7772,
1065.8805,
1068.1785,
1068.503,
1069.6938,
1070.2022,
1071.0853,
1071.6504,
1071.693,
1071.7443,
1071.8797,
1071.9289,
1073.2393,
1074.1321,
1074.2585,
1074.4046,
1075.0912,
1075.2503,
1075.6805,
1075.905,
1076.0926,
1076.6022,
1076.6328,
1077.8828,
1077.9812,
1078.0079,
1078.2245,
1078.5438,
1079.9958,
1080.274,
1081.0662,
1081.4204,
1081.8693,
1082.6898,
1082.7503,
1083.2779,
1083.378,
1083.893,
1084.1509,
1084.4509,
1084.5948,
1086.1762,
1086.4607,
1086.5447,
1087.0481,
1087.2037,
1088.4135,
1088.6,
1088.619,
1088.9401,
1089.0047,
1089.311,
1089.4833,
1090.0683,
1090.3326,
1091.0168,
1092.2035,
1092.5096,
1092.9768,
1093.8891,
1094.7444,
1095.7807,
1096.198,
1097.4866,
1097.5293,
1098.7694,
1100.0891,
1100.5323,
1100.8388,
1100.8671,
1101.143,
1101.2735,
1101.3873,
1102.1236,
1102.5841,
1103.0767,
1103.5331,
1103.7084,
1103.8968,
1104.2866,
1104.8727,
1104.9159,
1105.3182,
1105.3642,
1105.5326,
1105.6341,
1107.1101,
1108.1163,
1108.7429,
1108.8922,
1109.0942,
1109.3259,
1109.7232,
1109.8813,
1110.2658,
1110.3928,
1110.6246,
1111.0446,
1111.3562,
1111.6694,
1111.943,
1112.268,
1112.5618,
1112.5783,
1112.5887,
1113.5868,
1113.6757,
1114.0042,
1114.0233,
1114.2563,
1115.6727,
1115.8577,
1116.6945,
1117.0033,
1117.0894,
1117.2451,
1117.267,
1118.6751,
1119.0121,
1119.0612,
1120.2119,
1121.2368,
1121.7274,
1122.0111,
1122.5621,
1122.796,
1122.8372,
1123.8574,
1124.6979,
1126.0523,
1126.5365,
1126.7232,
1127.4924,
1128.5131,
1128.6279,
1128.7685,
1129.326,
1129.3466,
1129.4026,
1129.7223,
1129.7742,
1130.1367,
1130.2568,
1130.6195,
1131.339,
1132.142,
1132.1773,
1132.9385,
1133.4049,
1133.6068,
1134.8347,
1135.9437,
1136.429,
1137.6958,
1137.9824,
1138.3701,
1138.7248,
1138.769,
1139.5191,
1140.1571,
1140.3525,
1140.8954,
1141.3551,
1142.2481,
1143.71,
1145.1365,
1145.8288,
1145.8668,
1146.2269,
1146.7369,
1147.4063,
1147.6051,
1148.5516,
1149.9431,
1150.3691,
1150.6532,
1150.748,
1152.0705,
1153.5732,
1153.631,
1155.5757,
1157.1976,
1157.4265,
1158.0288,
1158.3683,
1159.2428,
1160.0848,
1160.6032,
1162.7683,
1164.0618,
1164.6404,
1164.7322,
1165.8309,
1166.4552,
1166.8375,
1167.7974,
1168.8247,
1170.4194,
1170.7149,
1170.7283,
1170.7746,
1172.1894,
1172.7566,
1172.7777,
1174.11,
1174.2366,
1174.2975,
1174.4168,
1174.4373,
1175.8925,
1176.137,
1176.1709,
1177.1878,
1177.4307,
1177.5909,
1177.813,
1177.8791,
1177.9771,
1178.0849,
1178.6639,
1179.0873,
1180.2282,
1180.8761,
1181.7157,
1182.0063,
1183.171,
1183.7728,
1183.8866,
1184.1055,
1184.3646,
1184.7726,
1185.2597,
1185.7775,
1186.2663,
1186.493,
1186.9156,
1187.2702,
1187.4995,
1187.6312,
1187.7025,
1188.1077,
1188.1288,
1188.1657,
1188.4468,
1189.0615,
1189.2199,
1189.3582,
1189.624,
1189.6843,
1189.956,
1190.4163,
1191.2085,
1191.8769,
1192.2902,
1192.3018,
1192.571,
1192.7698,
1192.7881,
1193.6425,
1193.9262,
1194.3911,
1195.9592,
1196.0175,
1196.2052,
1196.3635,
1196.6607,
1196.936,
1196.9476,
1197.0016,
1197.3714,
1197.6097,
1197.8852,
1198.0118,
1198.0759,
1198.1936,
1198.4643,
1198.4951,
1198.6973,
1199.0096,
1199.5135,
1199.628,
1200.3138,
1201.0389,
1201.0538,
1201.0683,
1201.1306,
1201.5821,
1201.9415,
1202.1147,
1202.5125,
1202.8859,
1203.0067,
1203.0441,
1203.2054,
1203.3051,
1203.3376,
1203.5184,
1203.764,
1203.9745,
1203.9873,
1204.674,
1204.7713,
1204.8421,
1205.843,
1206.3339,
1206.3481,
1206.5667,
1207.1144,
1207.2684,
1207.484,
1207.9145,
1208.0131,
1208.7771,
1209.9274,
1209.9413,
1210.3238,
1210.9334,
1210.9869,
1212.0622,
1212.9794,
1213.3017,
1213.8675,
1213.8955,
1214.415,
1214.5189,
1216.0573,
1216.1257,
1216.2654,
1216.7529,
1216.7717,
1216.7993,
1217.0753,
1217.5775,
1218.5338,
1218.9972,
1219.509,
1219.7232,
1219.7554,
1219.8049,
1220.2417,
1220.3254,
1220.4154,
1220.5833,
1221.045,
1221.7932,
1222.1717,
1222.2561,
1222.3613,
1223.2783,
1223.2893,
1223.5802,
1224.2359,
1224.2568,
1224.418,
1225.3816,
1226.4715,
1226.7648,
1227.0493,
1227.1363,
1227.3868,
1228.3522,
1228.8798,
1229.2145,
1229.4767,
1229.8083,
1230.2338,
1230.8335,
1231.3785,
1231.5688,
1232.7457,
1233.0873,
1233.1837,
1234.0447,
1234.3652,
1234.512,
1235.9395,
1236.2005,
1237.4511,
1237.6895,
1237.7614,
1238.0468,
1238.1254,
1238.7392,
1238.9795,
1239.9121,
1240.1838,
1240.2237,
1240.5786,
1242.1189,
1243.1149,
1243.9549,
1244.5243,
1244.7569,
1244.8776,
1245.1509,
1245.263,
1245.4754,
1245.8716,
1247.3888,
1248.3686,
1249.2365,
1249.6209,
1250.3065,
1250.5836,
1250.9661,
1251.6942,
1251.7568,
1252.6609,
1253.0746,
1253.4165,
1253.5242,
1253.6957,
1253.8455,
1253.935,
1253.9672,
1254.3659,
1255.4532,
1258.6253,
1259.5978,
1259.6896,
1261.0487,
1261.8097,
1262.7293,
1262.9164,
1264.0664,
1265.1802,
1265.2367,
1266.5132,
1267.0259,
1268.1926,
1269.1165,
1269.7517,
1269.8756,
1270.3063,
1271.1879,
1271.8513,
1272.3909,
1272.5018,
1272.585,
1272.9126,
1273.3576,
1273.6139,
1273.8899,
1274.5942,
1276.4482,
1276.4894,
1277.0342,
1277.6058,
1277.9734,
1278.4329,
1279.2802,
1279.3712,
1279.4132,
1279.5786,
1279.7842,
1279.9433,
1280.0816,
1280.5821,
1280.751,
1281.1047,
1282.0991,
1282.4134,
1282.8721,
1283.8722,
1284.4257,
1286.3123,
1286.4878,
1286.6757,
1286.7379,
1287.3273,
1288.3668,
1288.5171,
1288.6209,
1288.9997,
1290.0139,
1290.5461,
1291.3675,
1292.1646,
1292.2379,
1293.6755,
1293.6866,
1295.31,
1295.5017,
1296.863,
1296.8842,
1297.244,
1297.7336,
1298.0482,
1298.2665,
1298.4799,
1299.6999,
1301.046,
1301.1704,
1301.6799,
1301.6944,
1304.505,
1304.8664,
1305.7472,
1306.5388,
1306.7446,
1309.1862,
1309.2081,
1310.0962,
1310.326,
1310.5121,
1310.7947,
1313.3581,
1314.1937,
1314.3065,
1314.4911,
1315.9315,
1316.3933,
1317.7585,
1318.8764,
1318.9081,
1320.1663,
1320.9522,
1321.0,
1321.9201,
1322.1727,
1322.4661,
1323.7992,
1324.5032,
1325.0048,
1325.0502,
1325.7503,
1326.1037,
1326.2054,
1328.1445,
1328.6472,
1329.8344,
1330.9869,
1331.5565,
1332.2572,
1332.5174,
1332.9652,
1338.3158,
1338.3442,
1338.4807,
1338.4908,
1339.712,
1340.4719,
1341.0733,
1342.0584,
1342.3952,
1343.9904,
1344.8115,
1345.0894,
1346.1749,
1346.3148,
1347.0085,
1347.9027,
1348.4375,
1350.8143,
1351.9394,
1352.6867,
1352.7203,
1352.93,
1353.6965,
1355.8443,
1357.5774,
1357.9636,
1358.2186,
1358.9541,
1359.6697,
1360.3344,
1362.075,
1362.9847,
1363.5321,
1363.9349,
1364.016,
1366.5407,
1367.7344,
1368.7094,
1371.2314,
1371.2844,
1372.0212,
1373.4635,
1373.7478,
1375.3691,
1376.2198,
1376.4604,
1376.8035,
1376.9404,
1377.0864,
1377.1663,
1377.2427,
1377.4631,
1378.6711,
1379.2757,
1383.3454,
1383.7163,
1383.9587,
1384.2375,
1384.5137,
1385.6534,
1386.2683,
1387.0631,
1388.4532,
1390.5989,
1392.3729,
1394.4251,
1396.2149,
1396.5395,
1398.8387,
1401.7696,
1403.3091,
1403.3281,
1403.402,
1403.5536,
1403.9315,
1404.9654,
1405.4132,
1405.6313,
1405.9057,
1407.8305,
1409.805,
1410.6343,
1412.2439,
1413.6988,
1414.0893,
1414.5251,
1414.9246,
1415.023,
1416.0321,
1416.5921,
1417.0104,
1420.2694,
1421.4785,
1421.5204,
1425.8974,
1427.4482,
1427.948,
1428.1056,
1428.3082,
1431.0923,
1433.2302,
1434.3659,
1434.7739,
1435.6082,
1436.5858,
1437.3975,
1439.0129,
1439.6121,
1441.5117,
1441.9634,
1442.394,
1442.5705,
1444.1111,
1444.9659,
1445.0253,
1445.1225,
1445.7722,
1446.9322,
1449.0797,
1449.9948,
1451.4761,
1453.305,
1454.5015,
1454.8793,
1455.198,
1459.076,
1460.1252,
460.3178,
1467.8877,
1471.3334,
1476.3729,
1481.4642,
1487.7683,
1487.8037,
1492.5968,
1503.5602,
1505.7655,
1510.4132,
1511.0522,
1515.664,
1520.4895,
1527.8142,
1528.0911,
1529.379,
1538.8214,
1550.1815,
1553.4966,
1560.0038,
1568.4136,
1568.7982,
1574.9333,
1582.8881,
1593.6238,
1593.993,
1601.2891,
1628.0999,
1632.3383,
1654.4467,
1654.5135,
1654.5763,
1677.0881,
1691.062,
1691.2466,
1693.6003,
1708.8475,
1720.918,
1741.9952,
1743.078,
1743.2584,
1745.5876,
1757.1628,
1759.352,
1773.1598,
1778.517,
1778.9581,
1795.5938,
1796.9792,
1809.5308,
1810.4524,
1814.1603,
1837.1974,
1839.1467,
1854.1083,
1861.8291,
1863.9514,
1872.0499,
1886.0817,
1888.0055,
1896.754,
1903.4591,
1916.1045,
1936.6173,
1959.7079,
1980.8026,
2027.6945,
2037.9683,
2052.2893,
2058.4226,
2069.6294,
2077.786,
2110.5747,
2111.7898,
2115.0671,
2143.0842,
2169.9302,
2191.6194,
2211.6753,
2316.3074,
2371.4805,
2395.4727
};

#endif

